File: Python数据分析与可视化/Matplotlib数据可视化/数据集/XRD_AFOtxtd.csv
2d,Intensity,E
4,0,2.5
4.15,0,1.0
4.3,0
4.45,0
4.6,0
4.75,0
4.9,0
5.05,0
5.2,0
5.35,0
5.5,11.7811
5.65,14.9289
5.8,19.5287
5.95,26.6318
6.1,38.4446
6.25,60.2642
6.4,107.577
6.55,242.856
6.7,950.836
6.85,10000
7,769.191
7.15,217.182
7.3,99.7422
7.45,56.9244
7.6,36.7264
7.75,25.6348
7.9,18.8999
8.05,14.5072
8.2,15.4392
8.35,8.90159
8.5,11.2281
8.65,14.6011
8.8,19.7561
8.95,28.2088
9.1,43.5042
9.25,75.6083
9.4,162.093
9.55,551.298
9.7,7298.3
9.85,829.882
10,200.928
10.15,87.4319
10.3,48.5401
10.45,30.7986
10.6,21.2585
10.75,15.5486
10.9,11.8635
11.05,9.34809
11.2,7.62281
11.35,0.0846596
11.5,0.109149
11.65,0.14602
11.8,0.205263
11.95,0.3094
12.1,0.518359
12.25,7.02492
12.4,10.4235
12.55,38.3852
12.7,25.0206
12.85,19.2801
13,25.927
13.15,40.5056
13.3,74.086
13.45,177.963
13.6,866.675
13.75,4225.35
13.9,354.79
14.05,113.142
14.2,55.8762
14.35,52.5856
14.5,24.3586
14.65,15.4533
14.8,11.2335
14.95,8.60016
15.1,6.8103
15.25,0.872094
15.4,0.0558777
15.55,0.0424897
15.7,0.0333928
15.85,0.039369
16,0.149248
16.15,0.188676
16.3,0.246059
16.45,0.334203
16.6,0.479741
16.75,0.745781
16.9,2.56279
17.05,4.47162
17.2,12.6245
17.35,129.43
17.5,15.8806
17.65,9.43626
17.8,12.7231
17.95,26.3195
18.1,99.806
18.25,1073.35
18.4,83.9362
18.55,24.0685
18.7,11.62
18.85,7.3591
19,5.98185
19.15,7.0048
19.3,15.9015
19.45,147.98
19.6,40.7288
19.75,14.6177
19.9,12.2759
20.05,13.821
20.2,18.0249
20.35,27.4978
20.5,64.8881
20.65,290.437
20.8,100.652
20.95,183.603
21.1,695.611
21.25,6798.62
21.4,542.927
21.55,183.046
21.7,124.23
21.85,146.538
22,311.342
22.15,2395.68
22.3,2157.14
22.45,349.103
22.6,202.379
22.75,400.671
22.9,3371.96
23.05,369.552
23.2,1167.17
23.35,508.252
23.5,190.42
23.65,56.6388
23.8,26.3353
23.95,17.6012
24.1,13.0044
24.25,10.5326
24.4,10.1857
24.55,9.47269
24.7,10.4842
24.85,15.805
25,28.3916
25.15,84.747
25.3,545.262
25.45,296.063
25.6,135.862
25.75,854.518
25.9,541.452
26.05,86.1436
26.2,34.6432
26.35,19.1474
26.5,12.4402
26.65,9.24125
26.8,7.11852
26.95,5.68682
27.1,5.9276
27.25,7.53623
27.4,11.2625
27.55,44.6245
27.7,283.208
27.85,55.7648
28,98.867
28.15,223.486
28.3,24.2891
28.45,12.9279
28.6,12.9507
28.75,20.5642
28.9,102.193
29.05,84.9063
29.2,73.3901
29.35,409.068
29.5,655.856
29.65,228.075
29.8,292.237
29.95,38.3747
30.1,17.3605
30.25,10.8028
30.4,7.99087
30.55,6.60763
30.7,6.52385
30.85,7.69166
31,9.98656
31.15,22.8473
31.3,111.834
31.45,618.194
31.6,49.0096
31.75,15.2795
31.9,8.12155
32.05,5.46136
32.2,5.18356
32.35,6.54819
32.5,28.7736
32.65,22.7388
32.8,23.7446
32.95,19.8609
33.1,34.8719
33.25,298.102
33.4,137.766
33.55,126.035
33.7,357.979
33.85,38.2208
34,18.7009
34.15,24.2382
34.3,132.553
34.45,54.5218
34.6,50.4912
34.75,206.307
34.9,39.9155
35.05,209.1
35.2,70.4384
35.35,11.4683
35.5,5.73858
35.65,4.47667
35.8,4.14261
35.95,4.71247
36.1,6.90511
36.25,14.6078
36.4,77.992
36.55,254.059
36.7,74.7932
36.85,168.143
37,249.131
37.15,58.2677
37.3,23.2766
37.45,27.9551
37.6,100.124
37.75,352.42
37.9,384.99
38.05,55.7123
38.2,33.6747
38.35,84.8041
38.5,301.112
38.65,34.7352
38.8,14.0929
38.95,11.1318
39.1,23.6064
39.25,73.3873
39.4,30.6609
39.55,97.6499
39.7,63.1573
39.85,163.954
40,16.3255
40.15,5.96363
40.3,3.42236
40.45,2.60414
40.6,2.84564
40.75,4.62992
40.9,23.1049
41.05,59.4637
41.2,8.57068
41.35,3.1248
41.5,3.59398
41.65,15.2923
41.8,8.41825
41.95,62.3044
42.1,36.5556
42.25,6.80559
42.4,4.68518
42.55,6.08633
42.7,20.1862
42.85,88.0573
43,62.102
43.15,59.8329
43.3,206.713
43.45,99.5486
43.6,42.9965
43.75,17.7238
43.9,28.864
44.05,86.224
44.2,60.4328
44.35,19.8157
44.5,27.1416
44.65,5.89175
44.8,4.22188
44.95,5.66224
45.01,7.59091